File: Results/XRD_BRT_brACA.csv
"","Age","MPCOQ","MAAT","MAF","AI"
"1",56,-2.28223,2.53677,10.1781,2185.4
"2",141,-1.60055,2.43155,10.7522,1574.08
"3",441,11.053,4.41788,13.0828,2282.89
"4",672,5.08078,4.47449,11.5346,1297.14
"5",918,22.2443,4.14553,13.0084,1053.95
"6",1158,13.79,3.79823,13.1134,2351
"7",1393,-3.2631,-3.02297,8.95866,2388.32
"8",1640,0.234595,-1.96242,9.88896,2565.58
"9",1883,-8.28048,-2.35709,6.8195,2744.46
"10",2227,11.2197,0.0605373,7.7981,3673.12
"11",2392,8.76707,0.515134,9.61102,3136.11
"12",2568,4.4252,2.61273,10.6859,3163.18
"13",2747,6.96595,2.05222,11.6592,3059.31
"14",2910,-4.59728,1.37964,9.65544,3147.86
"15",3083,2.77784,2.24368,8.87975,3362.96
"16",3237,9.95144,1.49985,10.3534,3005.38
"17",3360,18.4575,1.12301,9.8728,3143.07
"18",3478,6.39549,1.41115,9.04732,3705.37
"19",3598,-3.27089,2.88963,9.78045,3022.49
"20",3716,31.4878,4.16879,14.1198,2114.01
"21",3835,13.3405,4.39153,11.1631,2557.51
"22",3950,42.1756,1.91032,10.6664,3591.84
"23",4071,25.4422,1.59607,9.92268,3381.9
"24",4183,17.1027,-1.6761,6.21597,3132.61
"25",4302,11.9237,-1.86992,6.26426,3224.21
"26",4422,16.3211,0.20763,7.26356,3319.79
"27",4537,20.4323,-0.447208,9.29319,3651.33
"28",4645,8.29084,-2.95132,6.60467,2927.67
"29",4786,10.574,-3.28023,5.76736,3281.77
"30",4923,27.5137,0.54955,9.21742,3611.41
"31",5057,34.4196,-0.0863098,7.7007,3109.18
"32",5173,13.8504,-1.90096,7.00832,3258.15
"33",5289,14.4195,-1.65094,7.56724,2602.71
"34",5403,17.5473,-1.68005,8.00329,3571.15
"35",5517,4.61597,-2.32616,6.55229,3809.79
"36",5601,14.2347,-0.150349,7.54709,4091.48
"37",5683,0.590591,-2.81876,6.22033,3118.74
"38",5766,6.21941,-0.926324,8.22405,3680.74
"39",5849,27.5629,-2.03374,7.01356,3391.88
"40",5932,8.52073,-2.77749,7.59276,3115.29
"41",6056,16.6269,-4.0952,5.22134,2616.49
"42",6182,-3.80812,-4.38252,6.85418,2617.67
"43",6308,5.90143,-3.67633,6.20438,3271.59
"44",6435,-0.221388,-4.30889,5.40617,3152.34
"45",6562,-20.3769,-4.18329,5.65928,2132.54
"46",6688,14.762,-3.26117,5.30146,3246.33
"47",6815,0.240141,-5.3332,4.06528,2647.62
"48",6943,-7.55165,-4.53254,5.02088,2802.16
"49",7075,-2.28564,-4.95532,5.02103,2408.65
"50",7273,-14.4629,-3.87887,6.61055,2140.43