File: Results/XRD_BRT_brACA_kwet.csv
"","Age","MPCOQ","MAAT","MAF","AI"
"1",56,18.985,1.20063,8.99032,2041.36
"2",141,18.2604,1.13016,9.04822,2021.32
"3",441,32.5204,1.27542,10.4791,2033.37
"4",672,16.3412,1.43592,9.09064,2474.89
"5",918,40.9646,1.89359,11.4127,1965.64
"6",1158,11.2698,2.19649,11.3346,1995.94
"7",1393,10.042,3.51859,9.61261,2142.75
"8",1640,6.16377,1.90378,8.1467,2195.06
"9",1883,9.5054,4.59357,10.6353,2244.09
"10",2227,0.910981,3.12374,9.44043,2459.53
"11",2392,10.6164,3.06624,10.3208,2545.46
"12",2568,9.53134,3.54095,10.8128,2393.33
"13",2747,12.6657,3.16652,10.996,2394.81
"14",2910,-0.69112,3.40329,10.0218,2319.66
"15",3083,-1.24808,3.16062,9.90751,2342.31
"16",3237,9.21275,3.19079,10.3693,2389.46
"17",3360,17.4647,2.73966,9.43507,2386.28
"18",3478,3.8038,1.50216,9.26473,2273.76
"19",3598,-4.19567,3.4714,10.2067,2248.72
"20",3716,18.8492,4.8267,11.069,1860.51
"21",3835,20.3817,2.48208,8.5752,1979.48
"22",3950,37.6161,3.11967,9.23318,1941.45
"23",4071,3.96619,3.53767,8.79492,1884.35
"24",4183,10.1942,2.13383,7.72533,1899.63
"25",4302,1.3431,2.94298,7.61101,2039.35
"26",4422,4.5468,2.20326,8.19044,1974.16
"27",4537,20.221,3.56547,9.81439,2249.06
"28",4645,49.2701,3.05285,7.54401,2387.29
"29",4786,7.13309,3.25432,7.48827,2121.92
"30",4923,17.9496,4.19978,9.30934,2357.47
"31",5057,28.4339,2.55813,8.20793,2356.01
"32",5173,37.5763,1.98902,7.58057,2546.77
"33",5289,20.6794,1.21838,7.98005,1942.94
"34",5403,26.1269,2.43301,8.62863,2550.27
"35",5517,11.1065,-0.29929,6.14523,2836.52
"36",5601,21.3223,0.514991,7.23091,2998.76
"37",5683,14.611,-0.515787,6.26833,2452.93
"38",5766,16.3803,2.46171,9.2096,2717.96
"39",5849,1.29148,-0.975971,6.20792,2785.15
"40",5932,12.7783,0.315715,6.91058,2633.41
"41",6056,12.7237,-0.932336,4.87198,1810.45
"42",6182,11.8568,-0.420682,6.66618,1929.84
"43",6308,10.661,-0.386786,6.85159,2453.37
"44",6435,26.2924,0.485819,6.24456,2496.93
"45",6562,16.1142,0.35184,7.58596,1962.81
"46",6688,29.6338,-1.31877,5.75427,2067.5
"47",6815,8.74232,0.477076,5.46727,1914.3
"48",6943,11.6979,0.225064,5.87776,2026.72
"49",7075,8.94255,0.803641,6.14144,1870.13
"50",7273,5.3069,0.871708,7.49843,2010.81