File: Results/XRD_BRT_brACA_karid.csv
"","Age","MPCOQ","MAAT","MAF","AI"
"1",56,3.58003,3.58288,9.30877,2179.23
"2",141,3.27275,2.99927,10.4457,1684.9
"3",441,10.2738,5.52219,10.5462,2057.13
"4",672,6.54182,4.0245,12.2725,1341.95
"5",918,6.56891,5.61572,10.9729,1095.77
"6",1158,3.1168,8.36001,11.4748,2475.54
"7",1393,3.78794,-1.42883,6.86302,2572.58
"8",1640,-0.515367,-0.725139,7.76359,2520.15
"9",1883,-0.0481477,-3.65543,6.45051,3026.46
"10",2227,2.15666,-0.309586,5.84575,3466.74
"11",2392,8.74812,2.60086,7.44372,3222.83
"12",2568,2.31068,1.4247,8.64292,3388.71
"13",2747,0.616939,3.1113,9.98811,3087.64
"14",2910,-12.3856,2.25624,8.3971,3400.12
"15",3083,-1.1235,2.0415,7.70337,3469.35
"16",3237,8.15251,4.513,9.37458,3203.26
"17",3360,9.59447,4.61765,9.48801,3284.55
"18",3478,7.30539,2.1506,7.90195,3339.24
"19",3598,3.06021,3.00419,9.47423,3464.59
"20",3716,44.6901,5.06654,12.6748,2427.06
"21",3835,14.8131,6.48915,10.5437,2655.97
"22",3950,25.6213,0.256319,7.89695,3239.56
"23",4071,36.9917,0.205915,7.08822,3606.9
"24",4183,16.211,-2.77201,5.32255,3105.99
"25",4302,12.9934,-1.93257,5.64395,3261.12
"26",4422,15.0305,-0.972193,5.93402,2884.49
"27",4537,11.5225,0.062676,6.81293,3610.7
"28",4645,-15.2254,-3.01138,6.27154,2849.03
"29",4786,2.38062,-2.76889,5.19899,3137.19
"30",4923,22.9097,0.0694113,6.28116,3563.83
"31",5057,14.3505,0.0979009,6.76318,3034.98
"32",5173,-2.31466,-1.42715,6.28251,3291.6
"33",5289,31.6534,-0.299822,7.75655,2768.93
"34",5403,10.3111,0.639792,6.99598,3537.38
"35",5517,7.73998,-3.14749,7.20074,3306.85
"36",5601,25.8154,1.36154,8.40191,3737.26
"37",5683,6.69329,-2.09526,7.21726,2795.68
"38",5766,1.34119,-1.12916,7.76042,3582.79
"39",5849,58.1124,-1.08051,7.93933,2920.79
"40",5932,52.6934,-2.37356,8.72183,2631.99
"41",6056,23.2549,-3.05177,7.27221,2400.33
"42",6182,27.8591,-3.85616,7.31276,2623.2
"43",6308,14.2113,-3.57549,6.62308,3063.11
"44",6435,4.78853,-5.15117,5.75493,3297.59
"45",6562,-13.5416,-3.39636,5.22877,2625.19
"46",6688,13.8538,-3.81974,6.18275,3076.68
"47",6815,-3.27073,-6.66942,4.32697,3032.91
"48",6943,6.96553,-4.3023,5.88348,2855.99
"49",7075,-8.0267,-5.00644,5.38429,2515.94
"50",7273,-5.69062,-3.35624,5.8999,2598.79